wavelength value1 value2
765.2104600 1.6202627 164.0000000
765.2549220 1.6201686 154.0000000
765.2993840 1.6200744 150.0000000
765.3438460 1.6199803 151.0000000
765.3883080 1.6198862 144.0000000
765.4327700 1.6197921 143.0000000
765.4772320 1.6196980 151.0000000
765.5216940 1.6196040 147.0000000
765.5661560 1.6195099 171.0000000
765.6106180 1.6194159 158.0000000
765.6550800 1.6193218 154.0000000
765.6995420 1.6192278 145.0000000
765.7440040 1.6191338 152.0000000
765.7884660 1.6190398 155.0000000
765.8329280 1.6189458 150.0000000
765.8773900 1.6188518 153.0000000
765.9218520 1.6187578 164.0000000
765.9663140 1.6186638 163.0000000
766.0107760 1.6185699 163.0000000
766.0552380 1.6184759 161.0000000
766.0997000 1.6183820 152.0000000
766.1441620 1.6182881 146.0000000
766.1886240 1.6181942 157.0000000
766.2330860 1.6181003 147.0000000
766.2775480 1.6180064 177.0000000
766.3220100 1.6179125 151.0000000
766.3664720 1.6178186 160.0000000
766.4109340 1.6177248 152.0000000
766.4553960 1.6176309 151.0000000
766.4998580 1.6175371 160.0000000
766.5443200 1.6174433 164.0000000
766.5887820 1.6173495 152.0000000
766.6332440 1.6172557 168.0000000
766.6777060 1.6171619 153.0000000
766.7221680 1.6170681 156.0000000
766.7666300 1.6169743 151.0000000
766.8110920 1.6168806 170.0000000
766.8555540 1.6167868 159.0000000
766.9000160 1.6166931 160.0000000
766.9444780 1.6165994 158.0000000
766.9889400 1.6165057 166.0000000
767.0334020 1.6164120 158.0000000
767.0778640 1.6163183 162.0000000
767.1223260 1.6162246 155.0000000
767.1667880 1.6161309 158.0000000
767.2112500 1.6160373 161.0000000
767.2557120 1.6159436 153.0000000
767.3001740 1.6158500 151.0000000
767.3446360 1.6157564 146.0000000
767.3890980 1.6156627 154.0000000
767.4335600 1.6155691 166.0000000
767.4780220 1.6154755 162.0000000
767.5224840 1.6153820 150.0000000
767.5669460 1.6152884 164.0000000
767.6114080 1.6151948 159.0000000
767.6558700 1.6151013 167.0000000
767.7003320 1.6150077 162.0000000
767.7447940 1.6149142 155.0000000
767.7892560 1.6148207 157.0000000
767.8337180 1.6147272 156.0000000
767.8781800 1.6146337 163.0000000
767.9226420 1.6145402 158.0000000
767.9671040 1.6144467 147.0000000
768.0115660 1.6143533 147.0000000
768.0560280 1.6142598 165.0000000
768.1004900 1.6141664 167.0000000
768.1449520 1.6140729 165.0000000
768.1894140 1.6139795 151.0000000
768.2338760 1.6138861 159.0000000
768.2783380 1.6137927 148.0000000
768.3228000 1.6136993 159.0000000
768.3672620 1.6136059 166.0000000
768.4117240 1.6135126 155.0000000
768.4561860 1.6134192 157.0000000
768.5006480 1.6133259 156.0000000
768.5451100 1.6132325 155.0000000
768.5895720 1.6131392 163.0000000
768.6340340 1.6130459 155.0000000
768.6784960 1.6129526 156.0000000
768.7229580 1.6128593 157.0000000
768.7674200 1.6127660 167.0000000
768.8118820 1.6126727 163.0000000
768.8563440 1.6125795 165.0000000
768.9008060 1.6124862 154.0000000
768.9452680 1.6123930 146.0000000
768.9897300 1.6122998 151.0000000
769.0341920 1.6122066 163.0000000
769.0786540 1.6121134 166.0000000
769.1231160 1.6120202 166.0000000
769.1675780 1.6119270 158.0000000
769.2120400 1.6118338 162.0000000
769.2565020 1.6117406 152.0000000
769.3009640 1.6116475 152.0000000
769.3454260 1.6115544 163.0000000
769.3898880 1.6114612 158.0000000
769.4343500 1.6113681 153.0000000
769.4788120 1.6112750 161.0000000
769.5232740 1.6111819 163.0000000
769.5677360 1.6110888 164.0000000
769.6121980 1.6109957 157.0000000
769.6566600 1.6109027 160.0000000
769.7011220 1.6108096 162.0000000
769.7455840 1.6107166 178.0000000
769.7900460 1.6106235 164.0000000
769.8345080 1.6105305 150.0000000
769.8789700 1.6104375 160.0000000
769.9234320 1.6103445 153.0000000
769.9678940 1.6102515 158.0000000
770.0123560 1.6101585 160.0000000
770.0568180 1.6100656 156.0000000
770.1012800 1.6099726 161.0000000
770.1457420 1.6098797 158.0000000
770.1902040 1.6097867 157.0000000
770.2346660 1.6096938 163.0000000
770.2791280 1.6096009 157.0000000
770.3235900 1.6095080 158.0000000
770.3680520 1.6094151 165.0000000
770.4125140 1.6093222 149.0000000
770.4569760 1.6092293 161.0000000
770.5014380 1.6091365 157.0000000
770.5459000 1.6090436 157.0000000
770.5903620 1.6089508 163.0000000
770.6348240 1.6088580 151.0000000
770.6792860 1.6087651 171.0000000
770.7237480 1.6086723 170.0000000
770.7682100 1.6085795 165.0000000
770.8126720 1.6084868 153.0000000
770.8571340 1.6083940 162.0000000
770.9015960 1.6083012 158.0000000
770.9460580 1.6082085 167.0000000
770.9905200 1.6081157 155.0000000
771.0349820 1.6080230 163.0000000
771.0794440 1.6079303 163.0000000
771.1239060 1.6078375 168.0000000
771.1683680 1.6077448 166.0000000
771.2128300 1.6076522 154.0000000
771.2572920 1.6075595 168.0000000
771.3017540 1.6074668 152.0000000
771.3462160 1.6073742 162.0000000
771.3906780 1.6072815 168.0000000
771.4351400 1.6071889 161.0000000
771.4796020 1.6070962 158.0000000
771.5240640 1.6070036 148.0000000
771.5685260 1.6069110 157.0000000
771.6129880 1.6068184 170.0000000
771.6574500 1.6067258 164.0000000
771.7019120 1.6066333 148.0000000
771.7463740 1.6065407 157.0000000
771.7908360 1.6064482 148.0000000
771.8352980 1.6063556 156.0000000
771.8797600 1.6062631 162.0000000
771.9242220 1.6061706 162.0000000
771.9686840 1.6060781 170.0000000
772.0131460 1.6059856 169.0000000
772.0576080 1.6058931 167.0000000
772.1020700 1.6058006 153.0000000
772.1465320 1.6057081 165.0000000
772.1909940 1.6056157 162.0000000
772.2354560 1.6055232 176.0000000
772.2799180 1.6054308 151.0000000
772.3243800 1.6053384 165.0000000
772.3688420 1.6052460 153.0000000
772.4133040 1.6051536 159.0000000
772.4577660 1.6050612 158.0000000
772.5022280 1.6049688 170.0000000
772.5466900 1.6048764 162.0000000
772.5911520 1.6047841 172.0000000
772.6356140 1.6046917 156.0000000
772.6800760 1.6045994 168.0000000
772.7245380 1.6045071 160.0000000
772.7690000 1.6044147 160.0000000
772.8134620 1.6043224 155.0000000
772.8579240 1.6042301 162.0000000
772.9023860 1.6041378 180.0000000
772.9468480 1.6040456 159.0000000
772.9913100 1.6039533 160.0000000
773.0357720 1.6038611 165.0000000
773.0802340 1.6037688 156.0000000
773.1246960 1.6036766 146.0000000
773.1691580 1.6035844 172.0000000
773.2136200 1.6034922 158.0000000
773.2580820 1.6033999 160.0000000
773.3025440 1.6033078 166.0000000
773.3470060 1.6032156 162.0000000
773.3914680 1.6031234 152.0000000
773.4359300 1.6030313 149.0000000
773.4803920 1.6029391 146.0000000
773.5248540 1.6028470 155.0000000
773.5693160 1.6027548 169.0000000
773.6137780 1.6026627 168.0000000
773.6582400 1.6025706 165.0000000
773.7027020 1.6024785 153.0000000
773.7471640 1.6023864 143.0000000
773.7916260 1.6022944 165.0000000
773.8360880 1.6022023 149.0000000
773.8805500 1.6021103 158.0000000
773.9250120 1.6020182 160.0000000
773.9694740 1.6019262 163.0000000
774.0139360 1.6018342 177.0000000
774.0583980 1.6017422 164.0000000
774.1028600 1.6016502 168.0000000
774.1473220 1.6015582 175.0000000
774.1917840 1.6014662 154.0000000
774.2362460 1.6013742 164.0000000
774.2807080 1.6012823 161.0000000
774.3251700 1.6011903 166.0000000
774.3696320 1.6010984 167.0000000
774.4140940 1.6010065 152.0000000
774.4585560 1.6009145 165.0000000
774.5030180 1.6008226 160.0000000
774.5474800 1.6007308 165.0000000
774.5919420 1.6006389 157.0000000
774.6364040 1.6005470 164.0000000
774.6808660 1.6004551 163.0000000
774.7253280 1.6003633 173.0000000
774.7697900 1.6002714 157.0000000
774.8142520 1.6001796 161.0000000
774.8587140 1.6000878 162.0000000
774.9031760 1.5999960 157.0000000
774.9476380 1.5999042 170.0000000
774.9921000 1.5998124 160.0000000
775.0365620 1.5997206 168.0000000
775.0810240 1.5996289 161.0000000
775.1254860 1.5995371 168.0000000
775.1699480 1.5994454 154.0000000
775.2144100 1.5993536 162.0000000
775.2588720 1.5992619 152.0000000
775.3033340 1.5991702 166.0000000
775.3477960 1.5990785 171.0000000
775.3922580 1.5989868 157.0000000
775.4367200 1.5988951 166.0000000
775.4811820 1.5988034 166.0000000
775.5256440 1.5987118 149.0000000
775.5701060 1.5986201 169.0000000
775.6145680 1.5985285 179.0000000
775.6590300 1.5984368 166.0000000
775.7034920 1.5983452 170.0000000
775.7479540 1.5982536 171.0000000
775.7924160 1.5981620 163.0000000
775.8368780 1.5980704 164.0000000
775.8813400 1.5979788 177.0000000
775.9258020 1.5978873 156.0000000
775.9702640 1.5977957 170.0000000
776.0147260 1.5977042 168.0000000
776.0591880 1.5976126 170.0000000
776.1036500 1.5975211 165.0000000
776.1481120 1.5974296 170.0000000
776.1925740 1.5973381 161.0000000
776.2370360 1.5972466 153.0000000
776.2814980 1.5971551 165.0000000
776.3259600 1.5970636 156.0000000
776.3704220 1.5969722 154.0000000
776.4148840 1.5968807 159.0000000
776.4593460 1.5967893 157.0000000
776.5038080 1.5966979 168.0000000
776.5482700 1.5966064 147.0000000
776.5927320 1.5965150 155.0000000
776.6371940 1.5964236 157.0000000
776.6816560 1.5963322 173.0000000
776.7261180 1.5962409 164.0000000
776.7705800 1.5961495 147.0000000
776.8150420 1.5960581 165.0000000
776.8595040 1.5959668 178.0000000
776.9039660 1.5958755 175.0000000
776.9484280 1.5957841 155.0000000
776.9928900 1.5956928 154.0000000
777.0373520 1.5956015 158.0000000
777.0818140 1.5955102 168.0000000
777.1262760 1.5954189 161.0000000
777.1707380 1.5953277 154.0000000
777.2152000 1.5952364 148.0000000
777.2596620 1.5951451 163.0000000
777.3041240 1.5950539 160.0000000
777.3485860 1.5949627 164.0000000
777.3930480 1.5948714 161.0000000
777.4375100 1.5947802 164.0000000
777.4819720 1.5946890 155.0000000
777.5264340 1.5945978 164.0000000
777.5708960 1.5945067 172.0000000
777.6153580 1.5944155 163.0000000
777.6598200 1.5943243 161.0000000
777.7042820 1.5942332 166.0000000
777.7487440 1.5941420 167.0000000
777.7932060 1.5940509 170.0000000
777.8376680 1.5939598 181.0000000
777.8821300 1.5938687 173.0000000
777.9265920 1.5937776 159.0000000
777.9710540 1.5936865 172.0000000
778.0155160 1.5935954 167.0000000
778.0599780 1.5935044 177.0000000
778.1044400 1.5934133 156.0000000
778.1489020 1.5933223 168.0000000
778.1933640 1.5932312 171.0000000
778.2378260 1.5931402 172.0000000
778.2822880 1.5930492 174.0000000
778.3267500 1.5929582 165.0000000
778.3712120 1.5928672 176.0000000
778.4156740 1.5927762 159.0000000
778.4601360 1.5926852 181.0000000
778.5045980 1.5925943 169.0000000
778.5490600 1.5925033 166.0000000
778.5935220 1.5924124 173.0000000
778.6379840 1.5923215 167.0000000
778.6824460 1.5922305 173.0000000
778.7269080 1.5921396 170.0000000
778.7713700 1.5920487 156.0000000
778.8158320 1.5919578 168.0000000
778.8602940 1.5918670 167.0000000
778.9047560 1.5917761 168.0000000
778.9492180 1.5916852 165.0000000
778.9936800 1.5915944 176.0000000
779.0381420 1.5915036 161.0000000
779.0826040 1.5914127 162.0000000
779.1270660 1.5913219 173.0000000
779.1715280 1.5912311 183.0000000
779.2159900 1.5911403 173.0000000
779.2604520 1.5910495 151.0000000
779.3049140 1.5909587 165.0000000
779.3493760 1.5908680 159.0000000
779.3938380 1.5907772 179.0000000
779.4383000 1.5906865 165.0000000
779.4827620 1.5905958 160.0000000
779.5272240 1.5905050 170.0000000
779.5716860 1.5904143 162.0000000
779.6161480 1.5903236 159.0000000
779.6606100 1.5902329 186.0000000
779.7050720 1.5901422 167.0000000
779.7495340 1.5900516 184.0000000
779.7939960 1.5899609 163.0000000
779.8384580 1.5898703 176.0000000
779.8829200 1.5897796 163.0000000
779.9273820 1.5896890 163.0000000
779.9718440 1.5895984 169.0000000
780.0163060 1.5895078 170.0000000
780.0607680 1.5894172 169.0000000
780.1052300 1.5893266 183.0000000
780.1496920 1.5892360 156.0000000
780.1941540 1.5891454 162.0000000
780.2386160 1.5890549 173.0000000
780.2830780 1.5889643 148.0000000
780.3275400 1.5888738 177.0000000
780.3720020 1.5887833 176.0000000
780.4164640 1.5886927 166.0000000
780.4609260 1.5886022 174.0000000
780.5053880 1.5885117 164.0000000
780.5498500 1.5884213 148.0000000
780.5943120 1.5883308 170.0000000
780.6387740 1.5882403 178.0000000
780.6832360 1.5881499 161.0000000
780.7276980 1.5880594 161.0000000
780.7721600 1.5879690 161.0000000
780.8166220 1.5878786 182.0000000
780.8610840 1.5877881 173.0000000
780.9055460 1.5876977 162.0000000
780.9500080 1.5876073 158.0000000
780.9944700 1.5875170 190.0000000
781.0389320 1.5874266 175.0000000
781.0833940 1.5873362 170.0000000
781.1278560 1.5872459 172.0000000
781.1723180 1.5871555 177.0000000
781.2167800 1.5870652 164.0000000
781.2612420 1.5869749 167.0000000
781.3057040 1.5868846 179.0000000
781.3501660 1.5867943 180.0000000
781.3946280 1.5867040 196.0000000
781.4390900 1.5866137 169.0000000
781.4835520 1.5865234 159.0000000
781.5280140 1.5864332 159.0000000
781.5724760 1.5863429 185.0000000
781.6169380 1.5862527 170.0000000
781.6614000 1.5861625 179.0000000
781.7058620 1.5860722 166.0000000
781.7503240 1.5859820 157.0000000
781.7947860 1.5858918 172.0000000
781.8392480 1.5858017 162.0000000
781.8837100 1.5857115 169.0000000
781.9281720 1.5856213 171.0000000
781.9726340 1.5855312 170.0000000
782.0170960 1.5854410 165.0000000
782.0615580 1.5853509 173.0000000
782.1060200 1.5852607 174.0000000
782.1504820 1.5851706 170.0000000
782.1949440 1.5850805 175.0000000
782.2394060 1.5849904 179.0000000
782.2838680 1.5849003 180.0000000
782.3283300 1.5848103 165.0000000
782.3727920 1.5847202 178.0000000
782.4172540 1.5846301 170.0000000
782.4617160 1.5845401 191.0000000
782.5061780 1.5844501 183.0000000
782.5506400 1.5843600 172.0000000
782.5951020 1.5842700 178.0000000
782.6395640 1.5841800 159.0000000
782.6840260 1.5840900 171.0000000
782.7284880 1.5840001 170.0000000
782.7729500 1.5839101 182.0000000
782.8174120 1.5838201 180.0000000
782.8618740 1.5837302 171.0000000
782.9063360 1.5836402 178.0000000
782.9507980 1.5835503 184.0000000
782.9952600 1.5834604 194.0000000
783.0397220 1.5833705 173.0000000
783.0841840 1.5832806 181.0000000
783.1286460 1.5831907 181.0000000
783.1731080 1.5831008 172.0000000
783.2175700 1.5830109 167.0000000
783.2620320 1.5829211 185.0000000
783.3064940 1.5828312 170.0000000
783.3509560 1.5827414 176.0000000
783.3954180 1.5826515 187.0000000
783.4398800 1.5825617 173.0000000
783.4843420 1.5824719 184.0000000
783.5288040 1.5823821 179.0000000
783.5732660 1.5822923 185.0000000
783.6177280 1.5822026 191.0000000
783.6621900 1.5821128 195.0000000
783.7066520 1.5820230 172.0000000
783.7511140 1.5819333 175.0000000
783.7955760 1.5818435 163.0000000
783.8400380 1.5817538 173.0000000
783.8845000 1.5816641 177.0000000
783.9289620 1.5815744 170.0000000
783.9734240 1.5814847 182.0000000
784.0178860 1.5813950 188.0000000
784.0623480 1.5813053 177.0000000
784.1068100 1.5812157 182.0000000
784.1512720 1.5811260 184.0000000
784.1957340 1.5810364 187.0000000
784.2401960 1.5809467 173.0000000
784.2846580 1.5808571 189.0000000
784.3291200 1.5807675 186.0000000
784.3735820 1.5806779 183.0000000
784.4180440 1.5805883 179.0000000
784.4625060 1.5804987 191.0000000
784.5069680 1.5804091 207.0000000
784.5514300 1.5803196 166.0000000
784.5958920 1.5802300 181.0000000
784.6403540 1.5801405 196.0000000
784.6848160 1.5800509 193.0000000
784.7292780 1.5799614 187.0000000
784.7737400 1.5798719 183.0000000
784.8182020 1.5797824 210.0000000
784.8626640 1.5796929 185.0000000
784.9071260 1.5796034 181.0000000
784.9515880 1.5795139 188.0000000
784.9960500 1.5794245 192.0000000
785.0405120 1.5793350 190.0000000
785.0849740 1.5792456 185.0000000
785.1294360 1.5791561 174.0000000
785.1738980 1.5790667 179.0000000
785.2183600 1.5789773 174.0000000
785.2628220 1.5788879 198.0000000
785.3072840 1.5787985 197.0000000
785.3517460 1.5787091 178.0000000
785.3962080 1.5786198 175.0000000
785.4406700 1.5785304 178.0000000
785.4851320 1.5784410 193.0000000
785.5295940 1.5783517 191.0000000
785.5740560 1.5782624 187.0000000
785.6185180 1.5781730 209.0000000
785.6629800 1.5780837 198.0000000
785.7074420 1.5779944 197.0000000
785.7519040 1.5779051 197.0000000
785.7963660 1.5778159 182.0000000
785.8408280 1.5777266 191.0000000
785.8852900 1.5776373 197.0000000
785.9297520 1.5775481 180.0000000
785.9742140 1.5774588 184.0000000
786.0186760 1.5773696 182.0000000
786.0631380 1.5772804 194.0000000
786.1076000 1.5771912 203.0000000
786.1520620 1.5771020 173.0000000
786.1965240 1.5770128 207.0000000
786.2409860 1.5769236 197.0000000
786.2854480 1.5768344 198.0000000
786.3299100 1.5767453 187.0000000
786.3743720 1.5766561 199.0000000
786.4188340 1.5765670 198.0000000
786.4632960 1.5764779 207.0000000
786.5077580 1.5763887 195.0000000
786.5522200 1.5762996 194.0000000
786.5966820 1.5762105 194.0000000
786.6411440 1.5761214 185.0000000
786.6856060 1.5760324 193.0000000
786.7300680 1.5759433 205.0000000
786.7745300 1.5758542 193.0000000
786.8189920 1.5757652 194.0000000
786.8634540 1.5756761 209.0000000
786.9079160 1.5755871 193.0000000
786.9523780 1.5754981 205.0000000
786.9968400 1.5754091 193.0000000
787.0413020 1.5753201 197.0000000
787.0857640 1.5752311 212.0000000
787.1302260 1.5751421 199.0000000
787.1746880 1.5750531 201.0000000
787.2191500 1.5749642 190.0000000
787.2636120 1.5748752 199.0000000
787.3080740 1.5747863 210.0000000
787.3525360 1.5746974 212.0000000
787.3969980 1.5746085 206.0000000
787.4414600 1.5745195 222.0000000
787.4859220 1.5744306 208.0000000
787.5303840 1.5743418 220.0000000
787.5748460 1.5742529 213.0000000
787.6193080 1.5741640 203.0000000
787.6637700 1.5740752 217.0000000
787.7082320 1.5739863 214.0000000
787.7526940 1.5738975 212.0000000
787.7971560 1.5738086 196.0000000
787.8416180 1.5737198 225.0000000
787.8860800 1.5736310 204.0000000
787.9305420 1.5735422 206.0000000
787.9750040 1.5734534 198.0000000
788.0194660 1.5733646 221.0000000
788.0639280 1.5732759 211.0000000
788.1083900 1.5731871 216.0000000
788.1528520 1.5730984 208.0000000
788.1973140 1.5730096 242.0000000
788.2417760 1.5729209 202.0000000
788.2862380 1.5728322 235.0000000
788.3307000 1.5727435 221.0000000
788.3751620 1.5726548 219.0000000
788.4196240 1.5725661 228.0000000
788.4640860 1.5724774 210.0000000
788.5085480 1.5723887 207.0000000
788.5530100 1.5723001 241.0000000
788.5974720 1.5722114 205.0000000
788.6419340 1.5721228 222.0000000
788.6863960 1.5720342 217.0000000
788.7308580 1.5719456 224.0000000
788.7753200 1.5718570 209.0000000
788.8197820 1.5717684 206.0000000
788.8642440 1.5716798 217.0000000
788.9087060 1.5715912 216.0000000
788.9531680 1.5715026 211.0000000
788.9976300 1.5714141 222.0000000
789.0420920 1.5713255 219.0000000
789.0865540 1.5712370 227.0000000
789.1310160 1.5711484 232.0000000
789.1754780 1.5710599 229.0000000
789.2199400 1.5709714 239.0000000
789.2644020 1.5708829 243.0000000
789.3088640 1.5707944 227.0000000
789.3533260 1.5707060 218.0000000
789.3977880 1.5706175 233.0000000
789.4422500 1.5705290 255.0000000
789.4867120 1.5704406 251.0000000
789.5311740 1.5703521 232.0000000
789.5756360 1.5702637 252.0000000
789.6200980 1.5701753 249.0000000
789.6645600 1.5700869 248.0000000
789.7090220 1.5699985 241.0000000
789.7534840 1.5699101 241.0000000
789.7979460 1.5698217 267.0000000
789.8424080 1.5697334 245.0000000
789.8868700 1.5696450 239.0000000
789.9313320 1.5695566 278.0000000
789.9757940 1.5694683 248.0000000
790.0202560 1.5693800 248.0000000
790.0647180 1.5692917 264.0000000
790.1091800 1.5692033 267.0000000
790.1536420 1.5691150 277.0000000
790.1981040 1.5690268 248.0000000
790.2425660 1.5689385 257.0000000
790.2870280 1.5688502 280.0000000
790.3314900 1.5687620 275.0000000
790.3759520 1.5686737 243.0000000
790.4204140 1.5685855 268.0000000
790.4648760 1.5684972 259.0000000
790.5093380 1.5684090 279.0000000
790.5538000 1.5683208 270.0000000
790.5982620 1.5682326 271.0000000
790.6427240 1.5681444 258.0000000
790.6871860 1.5680562 271.0000000
790.7316480 1.5679681 288.0000000
790.7761100 1.5678799 260.0000000
790.8205720 1.5677918 290.0000000
790.8650340 1.5677036 303.0000000
790.9094960 1.5676155 290.0000000
790.9539580 1.5675274 278.0000000
790.9984200 1.5674392 305.0000000
791.0428820 1.5673511 300.0000000
791.0873440 1.5672631 289.0000000
791.1318060 1.5671750 292.0000000
791.1762680 1.5670869 297.0000000
791.2207300 1.5669988 305.0000000
791.2651920 1.5669108 298.0000000
